,Resistance
0,388.0
1,388.0
2,388.1
3,388.9
4,387.3
5,390.2
6,387.8
7,389.5
8,389.6
9,388.8
10,388.1
11,388.8
12,389.4
13,389.4
14,389.0
15,387.9
16,388.6
17,387.7
18,387.5
19,388.3
20,388.3
21,388.6
22,388.2
23,387.5
24,389.4
25,387.5
26,389.1
27,388.6
28,389.3
29,388.1
30,388.4
31,387.3
32,387.8
33,388.5
34,387.6
35,388.3
36,388.2
37,387.9
38,388.5
39,389.0
40,388.4
41,387.9
42,388.9
43,388.7
44,387.6
45,387.2
46,387.9
47,388.0
48,388.6
49,389.2
